### Fill Cross Sections for proton off Ar
-------------------------------------------------------------
    N     E(MeV)   Elastic(b)   Inelastic(b)   Total(b)
-------------------------------------------------------------
    0      0.1012    0.000146   6.278e-07    0.0001466
    1      0.1035    0.000151   6.766e-07    0.0001516
    2      0.1059    0.000156   7.291e-07    0.0001567
    3      0.1084    0.000161   7.857e-07    0.0001617
    4      0.1109    0.000166   8.468e-07    0.0001668
    5      0.1135    0.000171   9.125e-07    0.0001719
    6      0.1161   0.0001769   9.834e-07    0.0001779
    7      0.1189   0.0001842    1.06e-06    0.0001853
    8      0.1216   0.0001915   1.142e-06    0.0001927
    9      0.1245   0.0001988   1.231e-06    0.0002001
   10      0.1274   0.0002061   1.326e-06    0.0002075
   11      0.1303   0.0002134   1.429e-06    0.0002149
   12      0.1334   0.0002207    1.54e-06    0.0002223
   13      0.1365    0.000228    1.66e-06    0.0002297
   14      0.1396   0.0002353   1.789e-06    0.0002371
   15      0.1429   0.0002426   1.928e-06    0.0002445
   16      0.1462   0.0002499   2.078e-06     0.000252
   17      0.1496   0.0002588   2.239e-06    0.0002611
   18      0.1531   0.0002695   2.413e-06    0.0002719
   19      0.1567   0.0002801     2.6e-06    0.0002827
   20      0.1603   0.0002908   2.802e-06    0.0002936
   21      0.1641   0.0003014    3.02e-06    0.0003044
   22      0.1679   0.0003121   3.255e-06    0.0003153
   23      0.1718   0.0003227   3.507e-06    0.0003262
   24      0.1758   0.0003334    3.78e-06    0.0003371
   25      0.1799    0.000344   4.073e-06    0.0003481
   26      0.1841   0.0003547    4.39e-06    0.0003591
   27      0.1884   0.0003653   4.731e-06      0.00037
   28      0.1928   0.0003786   5.098e-06    0.0003837
   29      0.1972   0.0003941   5.494e-06    0.0003996
   30      0.2018   0.0004097   5.921e-06    0.0004156
   31      0.2065   0.0004252   6.381e-06    0.0004316
   32      0.2113   0.0004408   6.876e-06    0.0004476
   33      0.2163   0.0004563    7.41e-06    0.0004637
   34      0.2213   0.0004718   7.986e-06    0.0004798
   35      0.2265   0.0004874   8.606e-06     0.000496
   36      0.2317   0.0005029   9.274e-06    0.0005122
   37      0.2371   0.0005185   9.995e-06    0.0005285
   38      0.2427    0.000534   1.077e-05    0.0005448
   39      0.2483   0.0005538   1.161e-05    0.0005654
   40      0.2541   0.0005765   1.251e-05     0.000589
   41        0.26   0.0005992   1.348e-05    0.0006127
   42      0.2661   0.0006219   1.453e-05    0.0006364
   43      0.2723   0.0006445   1.566e-05    0.0006602
   44      0.2786   0.0006672   1.687e-05    0.0006841
   45      0.2851   0.0006899   1.818e-05    0.0007081
   46      0.2917   0.0007126   1.959e-05    0.0007322
   47      0.2985   0.0007352   2.112e-05    0.0007564
   48      0.3055   0.0007579   2.276e-05    0.0007807
   49      0.3126   0.0007806   2.452e-05    0.0008051
   50      0.3199   0.0008101   2.643e-05    0.0008366
   51      0.3273   0.0008432   2.848e-05    0.0008717
   52       0.335   0.0008763   3.069e-05     0.000907
   53      0.3428   0.0009095   3.308e-05    0.0009425
   54      0.3508   0.0009426   3.565e-05    0.0009782
   55      0.3589   0.0009757   3.841e-05     0.001014
   56      0.3673    0.001009    4.14e-05      0.00105
   57      0.3758    0.001042   4.461e-05     0.001086
   58      0.3846    0.001075   4.808e-05     0.001123
   59      0.3936    0.001108   5.181e-05      0.00116
   60      0.4027    0.001141   5.583e-05     0.001197
   61      0.4121    0.001185   6.017e-05     0.001245
   62      0.4217    0.001234   6.484e-05     0.001298
   63      0.4315    0.001282   6.988e-05     0.001352
   64      0.4416     0.00133   7.531e-05     0.001406
   65      0.4519    0.001379   8.115e-05      0.00146
   66      0.4624    0.001427   8.746e-05     0.001515
   67      0.4732    0.001475   9.425e-05      0.00157
   68      0.4842    0.001524   0.0001016     0.001625
   69      0.4955    0.001572   0.0001095     0.001682
   70       0.507    0.001621    0.000118     0.001739
   71      0.5188    0.001669   0.0001271     0.001796
   72      0.5309    0.001735    0.000137     0.001872
   73      0.5433    0.001806   0.0001476     0.001954
   74      0.5559    0.001877   0.0001591     0.002036
   75      0.5689    0.001949   0.0001714      0.00212
   76      0.5821     0.00202   0.0001848     0.002204
   77      0.5957    0.002091   0.0001991      0.00229
   78      0.6095    0.002162   0.0002146     0.002377
   79      0.6237    0.002233   0.0002312     0.002464
   80      0.6383    0.002304   0.0002492     0.002554
   81      0.6531    0.002376   0.0002685     0.002644
   82      0.6683    0.002447   0.0002894     0.002736
   83      0.6839     0.00255   0.0003118     0.002862
   84      0.6998    0.002659    0.000336     0.002995
   85      0.7161    0.002768   0.0003621      0.00313
   86      0.7328    0.002878   0.0003902     0.003268
   87      0.7499    0.002987   0.0004205     0.003407
   88      0.7674    0.003096   0.0004532     0.003549
   89      0.7852    0.003205   0.0004884     0.003694
   90      0.8035    0.003314   0.0005263     0.003841
   91      0.8222    0.003424   0.0005671     0.003991
   92      0.8414    0.003533   0.0006111     0.004144
   93       0.861    0.003642   0.0006586     0.004301
   94       0.881    0.003841   0.0007097     0.004551
   95      0.9016     0.00405   0.0007647     0.004815
   96      0.9226    0.004259   0.0008241     0.005083
   97      0.9441    0.004468    0.000888     0.005356
   98      0.9661    0.004677   0.0009569     0.005634
   99      0.9886    0.004886    0.001031     0.005917
  100       1.012    0.005095    0.001111     0.006206
  101       1.035    0.005304    0.001197     0.006501
  102       1.059    0.005513     0.00129     0.006803
  103       1.084    0.005722     0.00139     0.007112
  104       1.109    0.005931    0.001498     0.007429
  105       1.135    0.006672    0.001614     0.008286
  106       1.161    0.007435    0.001739     0.009175
  107       1.189    0.008198    0.001874      0.01007
  108       1.216    0.008961    0.002019      0.01098
  109       1.245    0.009724    0.002176       0.0119
  110       1.274     0.01049    0.002344      0.01283
  111       1.303     0.01125    0.002526      0.01378
  112       1.334     0.01201    0.002721      0.01473
  113       1.365     0.01278    0.002932      0.01571
  114       1.396     0.01354    0.003159       0.0167
  115       1.429     0.01442    0.003403      0.01782
  116       1.462     0.01972    0.003666      0.02339
  117       1.496     0.02503     0.00395      0.02898
  118       1.531     0.03033    0.004255      0.03459
  119       1.567     0.03564    0.004584      0.04022
  120       1.603     0.04094    0.004938      0.04588
  121       1.641     0.04624    0.005319      0.05156
  122       1.679     0.05155     0.00573      0.05728
  123       1.718     0.05685    0.006172      0.06302
  124       1.758     0.06216    0.006647      0.06881
  125       1.799     0.06746    0.007159      0.07462
  126       1.841     0.07606    0.007711      0.08377
  127       1.884      0.1169    0.008304       0.1252
  128       1.928      0.1578    0.008943       0.1667
  129       1.972      0.1986     0.00963       0.2082
  130       2.018      0.2395     0.01037       0.2498
  131       2.065      0.2803     0.01116       0.2915
  132       2.113      0.3212     0.01202       0.3332
  133       2.163       0.362     0.01294        0.375
  134       2.213      0.4029     0.01393       0.4168
  135       2.265      0.4437     0.01499       0.4587
  136       2.317      0.4846     0.01614       0.5007
  137       2.371      0.5375     0.01737       0.5548
  138       2.427      0.6528     0.01869       0.6715
  139       2.483      0.7681     0.02011       0.7882
  140       2.541      0.8834     0.02163        0.905
  141         2.6      0.9987     0.02327        1.022
  142       2.661       1.114     0.02503        1.139
  143       2.723       1.229     0.02691        1.256
  144       2.786       1.345     0.02894        1.374
  145       2.851        1.46     0.03111        1.491
  146       2.917       1.575     0.03343        1.609
  147       2.985       1.691     0.03593        1.727
  148       3.055       1.775      0.0386        1.813
  149       3.126       1.757     0.04146        1.798
  150       3.199       1.738     0.04453        1.783
  151       3.273        1.72      0.0478        1.768
  152        3.35       1.702     0.05131        1.754
  153       3.428       1.684     0.05505        1.739
  154       3.508       1.666     0.05905        1.725
  155       3.589       1.648     0.06332        1.711
  156       3.673        1.63     0.06788        1.698
  157       3.758       1.612     0.07273        1.685
  158       3.846       1.594      0.0779        1.672
  159       3.936       1.565      0.0834        1.649
  160       4.027       1.513     0.08925        1.602
  161       4.121       1.461     0.09546        1.557
  162       4.217       1.409      0.1021        1.511
  163       4.315       1.357       0.109        1.466
  164       4.416       1.305      0.1164        1.422
  165       4.519       1.253      0.1243        1.377
  166       4.624       1.201      0.1325        1.334
  167       4.732       1.149      0.1412         1.29
  168       4.842       1.097      0.1504        1.248
  169       4.955       1.045        0.16        1.205
  170        5.07       1.001      0.1702        1.171
  171       5.188      0.9681      0.1808        1.149
  172       5.309      0.9354      0.1919        1.127
  173       5.433      0.9027      0.2035        1.106
  174       5.559      0.8699      0.2156        1.086
  175       5.689      0.8372      0.2282        1.065
  176       5.821      0.8045      0.2413        1.046
  177       5.957      0.7717      0.2548        1.027
  178       6.095       0.739      0.2688        1.008
  179       6.237      0.7062      0.2833       0.9895
  180       6.383      0.6735      0.2981       0.9716
  181       6.531      0.6478      0.3134       0.9612
  182       6.683      0.6297       0.329       0.9587
  183       6.839      0.6116      0.3449       0.9565
  184       6.998      0.5935      0.3611       0.9547
  185       7.161      0.5754      0.3776        0.953
  186       7.328      0.5573      0.3943       0.9516
  187       7.499      0.5392      0.4111       0.9504
  188       7.674      0.5211      0.4281       0.9492
  189       7.852       0.503      0.4451       0.9481
  190       8.035      0.4849      0.4622       0.9471
  191       8.222      0.4668      0.4792        0.946
  192       8.414      0.4544      0.4961       0.9505
  193        8.61       0.446      0.5129       0.9589
  194        8.81      0.4377      0.5294       0.9671
  195       9.016      0.4293      0.5458       0.9751
  196       9.226      0.4209      0.5619       0.9828
  197       9.441      0.4126      0.5776       0.9901
  198       9.661      0.4042       0.593       0.9971
  199       9.886      0.3958      0.6079        1.004
  200       10.12      0.3874      0.6224         1.01
  201       10.35      0.3791      0.6365        1.016
  202       10.59      0.3707        0.65        1.021
  203       10.84      0.3672       0.663         1.03
  204       11.09      0.3658      0.6755        1.041
  205       11.35      0.3644      0.6874        1.052
  206       11.61       0.363      0.6988        1.062
  207       11.89      0.3616      0.7095        1.071
  208       12.16      0.3602      0.7197         1.08
  209       12.45      0.3588      0.7293        1.088
  210       12.74      0.3574      0.7383        1.096
  211       13.03       0.356      0.7467        1.103
  212       13.34      0.3547      0.7545        1.109
  213       13.65      0.3533      0.7618        1.115
  214       13.96      0.3565      0.7685        1.125
  215       14.29      0.3607      0.7779        1.139
  216       14.62      0.3649      0.7879        1.153
  217       14.96      0.3691      0.7981        1.167
  218       15.31      0.3733      0.8064         1.18
  219       15.67      0.3775      0.8146        1.192
  220       16.03      0.3817      0.8231        1.205
  221       16.41      0.3859      0.8332        1.219
  222       16.79      0.3901      0.8435        1.234
  223       17.18      0.3943      0.8522        1.247
  224       17.58      0.3985      0.8589        1.257
  225       17.99      0.4074      0.8656        1.273
  226       18.41      0.4164      0.8726        1.289
  227       18.84      0.4254      0.8797        1.305
  228       19.28      0.4344       0.887        1.321
  229       19.72      0.4434      0.8944        1.338
  230       20.18      0.4524      0.9013        1.354
  231       20.65      0.4614      0.9071        1.368
  232       21.13      0.4704       0.913        1.383
  233       21.63      0.4795      0.9191        1.399
  234       22.13      0.4885      0.9241        1.413
  235       22.65       0.498      0.9258        1.424
  236       23.17      0.5105      0.9275        1.438
  237       23.71      0.5231      0.9292        1.452
  238       24.27      0.5356       0.931        1.467
  239       24.83      0.5482      0.9329        1.481
  240       25.41      0.5607      0.9303        1.491
  241          26      0.5733      0.9259        1.499
  242       26.61      0.5858      0.9214        1.507
  243       27.23      0.5984      0.9165        1.515
  244       27.86      0.6109      0.9113        1.522
  245       28.51      0.6235      0.9059        1.529
  246       29.17      0.6362      0.9003        1.536
  247       29.85       0.649      0.8947        1.544
  248       30.55      0.6618      0.8869        1.549
  249       31.26      0.6746      0.8784        1.553
  250       31.99      0.6875      0.8696        1.557
  251       32.73      0.7003      0.8607        1.561
  252        33.5      0.7131      0.8516        1.565
  253       34.28       0.726      0.8423        1.568
  254       35.08      0.7388      0.8331        1.572
  255       35.89      0.7517      0.8273        1.579
  256       36.73      0.7646      0.8214        1.586
  257       37.58      0.7743      0.8154         1.59
  258       38.46      0.7817      0.8092        1.591
  259       39.36      0.7891      0.8029        1.592
  260       40.27      0.7966      0.7956        1.592
  261       41.21       0.804      0.7862         1.59
  262       42.17      0.8114      0.7766        1.588
  263       43.15      0.8189      0.7668        1.586
  264       44.16      0.8263      0.7567        1.583
  265       45.19      0.8338       0.747        1.581
  266       46.24      0.8412      0.7397        1.581
  267       47.32      0.8487      0.7322        1.581
  268       48.42      0.8473      0.7245        1.572
  269       49.55      0.8447      0.7167        1.561
  270        50.7      0.8421      0.7083         1.55
  271       51.88      0.8394      0.6994        1.539
  272       53.09      0.8368      0.6903        1.527
  273       54.33      0.8342       0.681        1.515
  274       55.59      0.8315      0.6715        1.503
  275       56.89      0.8289      0.6618        1.491
  276       58.21      0.8262      0.6518        1.478
  277       59.57      0.8236      0.6417        1.465
  278       60.95      0.8189      0.6351        1.454
  279       62.37      0.8074      0.6302        1.438
  280       63.83      0.7959      0.6251        1.421
  281       65.31      0.7843      0.6199        1.404
  282       66.83      0.7728      0.6147        1.387
  283       68.39      0.7612      0.6092         1.37
  284       69.98      0.7497      0.6037        1.353
  285       71.61      0.7381      0.6012        1.339
  286       73.28      0.7265      0.5987        1.325
  287       74.99      0.7149      0.5962        1.311
  288       76.74      0.7033      0.5935        1.297
  289       78.52      0.6895      0.5909         1.28
  290       80.35      0.6746      0.5886        1.263
  291       82.22      0.6597      0.5882        1.248
  292       84.14      0.6447      0.5877        1.232
  293        86.1      0.6297      0.5873        1.217
  294        88.1      0.6148      0.5869        1.202
  295       90.16      0.5998      0.5862        1.186
  296       92.26      0.5847      0.5831        1.168
  297       94.41      0.5697      0.5799         1.15
  298       96.61      0.5547      0.5766        1.131
  299       98.86      0.5399      0.5732        1.113
  300       101.2      0.5262      0.5704        1.097
  301       103.5      0.5124      0.5683        1.081
  302       105.9      0.4987      0.5662        1.065
  303       108.4      0.4849       0.564        1.049
  304       110.9      0.4711      0.5617        1.033
  305       113.5      0.4573      0.5594        1.017
  306       116.1      0.4435       0.557        1.001
  307       118.9      0.4297      0.5546       0.9843
  308       121.6      0.4158      0.5526       0.9685
  309       124.5       0.402       0.551       0.9529
  310       127.4      0.3908      0.5492       0.9401
  311       130.3      0.3802      0.5475       0.9277
  312       133.4      0.3696      0.5457       0.9153
  313       136.5       0.359      0.5439       0.9029
  314       139.6      0.3484       0.542       0.8904
  315       142.9      0.3378      0.5409       0.8787
  316       146.2      0.3271      0.5399       0.8671
  317       149.6      0.3165      0.5389       0.8554
  318       153.1      0.3058      0.5388       0.8446
  319       156.7      0.2951      0.5388       0.8339
  320       160.3      0.2865      0.5388       0.8254
  321       164.1      0.2795      0.5388       0.8183
  322       167.9      0.2725      0.5388       0.8113
  323       171.8      0.2654      0.5388       0.8042
  324       175.8      0.2583      0.5388       0.7971
  325       179.9      0.2513      0.5388       0.7901
  326       184.1      0.2442      0.5378        0.782
  327       188.4      0.2371      0.5367       0.7738
  328       192.8      0.2299      0.5356       0.7656
  329       197.2      0.2228      0.5345       0.7573
  330       201.8      0.2176      0.5337       0.7512
  331       206.5      0.2141      0.5332       0.7473
  332       211.3      0.2106      0.5327       0.7433
  333       216.3      0.2071      0.5322       0.7393
  334       221.3      0.2036      0.5317       0.7353
  335       226.5      0.2001      0.5312       0.7313
  336       231.7      0.1966      0.5307       0.7273
  337       237.1       0.193      0.5302       0.7232
  338       242.7      0.1895      0.5296       0.7191
  339       248.3       0.186      0.5291        0.715
  340       254.1      0.1848      0.5289       0.7136
  341         260      0.1849      0.5289       0.7138
  342       266.1       0.185      0.5289       0.7139
  343       272.3      0.1852      0.5288        0.714
  344       278.6      0.1853      0.5288       0.7141
  345       285.1      0.1854      0.5288       0.7142
  346       291.7      0.1856      0.5288       0.7144
  347       298.5      0.1857      0.5288       0.7145
  348       305.5      0.1859      0.5299       0.7157
  349       312.6       0.186      0.5313       0.7173
  350       319.9      0.1893      0.5327        0.722
  351       327.3      0.1929      0.5342        0.727
  352         335      0.1964      0.5357       0.7321
  353       342.8      0.1999      0.5373       0.7372
  354       350.8      0.2035      0.5388       0.7423
  355       358.9       0.207      0.5405       0.7475
  356       367.3      0.2106      0.5421       0.7527
  357       375.8      0.2142      0.5438        0.758
  358       384.6      0.2177      0.5456       0.7633
  359       393.6      0.2223      0.5474       0.7697
  360       402.7      0.2279      0.5492       0.7771
  361       412.1      0.2335      0.5511       0.7845
  362       421.7      0.2391       0.553        0.792
  363       431.5      0.2447      0.5549       0.7996
  364       441.6      0.2503      0.5569       0.8073
  365       451.9       0.256       0.559        0.815
  366       462.4      0.2617      0.5611       0.8228
  367       473.2      0.2674      0.5633       0.8306
  368       484.2       0.273      0.5655       0.8385
  369       495.5      0.2785      0.5677       0.8462
  370         507       0.284      0.5704       0.8543
  371       518.8      0.2895      0.5733       0.8628
  372       530.9       0.295      0.5763       0.8714
  373       543.3      0.3006      0.5794         0.88
  374       555.9      0.3061      0.5826       0.8887
  375       568.9      0.3117      0.5858       0.8975
  376       582.1      0.3173      0.5891       0.9064
  377       595.7      0.3224      0.5925       0.9149
  378       609.5      0.3263       0.595       0.9213
  379       623.7      0.3303      0.5971       0.9274
  380       638.3      0.3342      0.5993       0.9335
  381       653.1      0.3382      0.6015       0.9397
  382       668.3      0.3421      0.6038       0.9459
  383       683.9      0.3461      0.6061       0.9522
  384       699.8      0.3501      0.6085       0.9586
  385       716.1      0.3541      0.6093       0.9635
  386       732.8       0.357      0.6102       0.9672
  387       749.9      0.3592       0.611       0.9702
  388       767.4      0.3614      0.6119       0.9733
  389       785.2      0.3636      0.6128       0.9764
  390       803.5      0.3658      0.6137       0.9795
  391       822.2       0.368      0.6146       0.9827
  392       841.4      0.3702      0.6156       0.9858
  393         861      0.3725      0.6166       0.9891
  394         881      0.3745      0.6176        0.992
  395       901.6      0.3754      0.6185        0.994
  396       922.6      0.3764       0.619       0.9954
  397       944.1      0.3774      0.6194       0.9968
  398       966.1      0.3784      0.6198       0.9982
  399       988.6      0.3793      0.6203       0.9996
  400        1012      0.3803      0.6207        1.001
  401        1035      0.3813       0.621        1.002
  402        1059      0.3823      0.6213        1.004
  403        1084      0.3825      0.6217        1.004
  404        1109      0.3828       0.622        1.005
  405        1135      0.3831      0.6224        1.005
  406        1161      0.3833      0.6228        1.006
  407        1189      0.3836      0.6232        1.007
  408        1216      0.3839      0.6236        1.007
  409        1245      0.3841       0.624        1.008
  410        1274      0.3843      0.6244        1.009
  411        1303      0.3842      0.6248        1.009
  412        1334      0.3841      0.6252        1.009
  413        1365       0.384      0.6257         1.01
  414        1396      0.3839      0.6261         1.01
  415        1429      0.3838      0.6266         1.01
  416        1462      0.3837       0.627        1.011
  417        1496      0.3836      0.6275        1.011
  418        1531      0.3834      0.6276        1.011
  419        1567      0.3832      0.6277        1.011
  420        1603      0.3829      0.6278        1.011
  421        1641      0.3826      0.6279         1.01
  422        1679      0.3823      0.6279         1.01
  423        1718       0.382       0.628         1.01
  424        1758      0.3818      0.6281         1.01
  425        1799      0.3815      0.6282         1.01
  426        1841      0.3811      0.6283        1.009
  427        1884      0.3807      0.6284        1.009
  428        1928      0.3804      0.6285        1.009
  429        1972        0.38      0.6286        1.009
  430        2018      0.3796      0.6284        1.008
  431        2065      0.3793       0.628        1.007
  432        2113      0.3789      0.6275        1.006
  433        2163      0.3785       0.627        1.005
  434        2213      0.3781      0.6265        1.005
  435        2265      0.3777       0.626        1.004
  436        2317      0.3773      0.6254        1.003
  437        2371      0.3769      0.6249        1.002
  438        2427      0.3765      0.6244        1.001
  439        2483      0.3761      0.6238       0.9998
  440        2541      0.3756      0.6232       0.9988
  441        2600      0.3752      0.6226       0.9978
  442        2661      0.3748       0.622       0.9968
  443        2723      0.3744      0.6214       0.9958
  444        2786      0.3739      0.6208       0.9947
  445        2851      0.3735      0.6201       0.9936
  446        2917      0.3731      0.6195       0.9925
  447        2985      0.3726      0.6188       0.9914
  448        3055      0.3722      0.6184       0.9906
  449        3126      0.3717      0.6181       0.9899
  450        3199      0.3713      0.6178       0.9891
  451        3273      0.3709      0.6175       0.9884
  452        3350      0.3704      0.6172       0.9876
  453        3428        0.37      0.6169       0.9869
  454        3508      0.3695      0.6166       0.9861
  455        3589      0.3691      0.6162       0.9853
  456        3673      0.3686      0.6159       0.9846
  457        3758      0.3682      0.6156       0.9838
  458        3846      0.3678      0.6152        0.983
  459        3936      0.3673      0.6148       0.9821
  460        4027      0.3669      0.6145       0.9813
  461        4121      0.3664      0.6141       0.9805
  462        4217       0.366      0.6137       0.9797
  463        4315      0.3655      0.6133       0.9788
  464        4416      0.3651      0.6129       0.9779
  465        4519      0.3646      0.6125       0.9771
  466        4624      0.3642       0.612       0.9762
  467        4732      0.3637      0.6116       0.9753
  468        4842      0.3633      0.6112       0.9744
  469        4955      0.3628      0.6107       0.9735
  470        5070      0.3624      0.6103       0.9727
  471        5188      0.3619      0.6101        0.972
  472        5309      0.3614      0.6098       0.9712
  473        5433       0.361      0.6095       0.9704
  474        5559      0.3605      0.6091       0.9697
  475        5689      0.3601      0.6088       0.9689
  476        5821      0.3596      0.6085       0.9681
  477        5957      0.3592      0.6082       0.9674
  478        6095      0.3587      0.6078       0.9666
  479        6237      0.3583      0.6075       0.9658
  480        6383      0.3579      0.6071        0.965
  481        6531      0.3574      0.6067       0.9641
  482        6683       0.357      0.6064       0.9633
  483        6839      0.3565       0.606       0.9625
  484        6998      0.3561      0.6056       0.9616
  485        7161      0.3556      0.6048       0.9604
  486        7328      0.3552       0.604       0.9591
  487        7499      0.3547      0.6031       0.9578
  488        7674      0.3543      0.6022       0.9565
  489        7852      0.3538      0.6013       0.9552
  490        8035      0.3534      0.6004       0.9538
  491        8222       0.353      0.5995       0.9525
  492        8414      0.3525      0.5986       0.9511
  493        8610      0.3521      0.5976       0.9497
  494        8810      0.3517      0.5966       0.9482
  495        9016      0.3512      0.5956       0.9468
  496        9226      0.3508      0.5945       0.9453
  497        9441      0.3503      0.5934       0.9438
  498        9661      0.3499      0.5924       0.9423
  499        9886      0.3495      0.5912       0.9407
  500   1.012e+04      0.3491      0.5906       0.9397
  501   1.035e+04      0.3486      0.5905       0.9391
  502   1.059e+04      0.3482      0.5904       0.9386
  503   1.084e+04      0.3478      0.5902        0.938
  504   1.109e+04      0.3474      0.5901       0.9375
  505   1.135e+04       0.347        0.59        0.937
  506   1.161e+04      0.3465      0.5899       0.9364
  507   1.189e+04      0.3461      0.5897       0.9359
  508   1.216e+04      0.3457      0.5896       0.9353
  509   1.245e+04      0.3453      0.5894       0.9347
  510   1.274e+04      0.3449      0.5893       0.9342
  511   1.303e+04      0.3445      0.5892       0.9337
  512   1.334e+04      0.3441       0.589       0.9331
  513   1.365e+04      0.3437      0.5888       0.9325
  514   1.396e+04      0.3433      0.5887        0.932
  515   1.429e+04      0.3429      0.5885       0.9314
  516   1.462e+04      0.3425      0.5884       0.9309
  517   1.496e+04      0.3421      0.5882       0.9303
  518   1.531e+04      0.3417       0.588       0.9297
  519   1.567e+04      0.3413      0.5878       0.9292
  520   1.603e+04      0.3409      0.5877       0.9286
  521   1.641e+04      0.3406      0.5875        0.928
  522   1.679e+04      0.3402      0.5873       0.9275
  523   1.718e+04      0.3398      0.5871       0.9269
  524   1.758e+04      0.3395      0.5869       0.9263
  525   1.799e+04      0.3391      0.5867       0.9258
  526   1.841e+04      0.3387      0.5865       0.9252
  527   1.884e+04      0.3383      0.5863       0.9246
  528   1.928e+04       0.338       0.586        0.924
  529   1.972e+04      0.3376      0.5858       0.9235
  530   2.018e+04      0.3373      0.5856       0.9229
  531   2.065e+04      0.3369      0.5855       0.9225
  532   2.113e+04      0.3366      0.5854        0.922
  533   2.163e+04      0.3362      0.5853       0.9215
  534   2.213e+04      0.3359      0.5852       0.9211
  535   2.265e+04      0.3356      0.5851       0.9206
  536   2.317e+04      0.3352      0.5849       0.9202
  537   2.371e+04      0.3349      0.5848       0.9197
  538   2.427e+04      0.3346      0.5847       0.9192
  539   2.483e+04      0.3342      0.5845       0.9188
  540   2.541e+04      0.3339      0.5844       0.9183
  541     2.6e+04      0.3336      0.5843       0.9179
  542   2.661e+04      0.3333      0.5841       0.9174
  543   2.723e+04       0.333       0.584        0.917
  544   2.786e+04      0.3327      0.5838       0.9165
  545   2.851e+04      0.3324      0.5837       0.9161
  546   2.917e+04      0.3321      0.5835       0.9156
  547   2.985e+04      0.3318      0.5834       0.9151
  548   3.055e+04      0.3315      0.5832       0.9147
  549   3.126e+04      0.3312       0.583       0.9142
  550   3.199e+04      0.3309      0.5829       0.9138
  551   3.273e+04      0.3306      0.5827       0.9133
  552    3.35e+04      0.3304      0.5825       0.9129
  553   3.428e+04      0.3301      0.5823       0.9124
  554   3.508e+04      0.3298      0.5822        0.912
  555   3.589e+04      0.3295       0.582       0.9115
  556   3.673e+04      0.3293      0.5818        0.911
  557   3.758e+04       0.329      0.5816       0.9106
  558   3.846e+04      0.3288      0.5814       0.9101
  559   3.936e+04      0.3285      0.5812       0.9097
  560   4.027e+04      0.3283      0.5809       0.9092
  561   4.121e+04       0.328      0.5807       0.9087
  562   4.217e+04      0.3278      0.5805       0.9083
  563   4.315e+04      0.3276      0.5803       0.9078
  564   4.416e+04      0.3273        0.58       0.9074
  565   4.519e+04      0.3271      0.5798       0.9069
  566   4.624e+04      0.3269      0.5795       0.9064
  567   4.732e+04      0.3267      0.5793        0.906
  568   4.842e+04      0.3265       0.579       0.9055
  569   4.955e+04      0.3263      0.5788        0.905
  570    5.07e+04       0.326      0.5787       0.9047
  571   5.188e+04      0.3258      0.5787       0.9045
  572   5.309e+04      0.3256      0.5787       0.9043
  573   5.433e+04      0.3255      0.5787       0.9041
  574   5.559e+04      0.3253      0.5787       0.9039
  575   5.689e+04      0.3251      0.5787       0.9037
  576   5.821e+04      0.3249      0.5787       0.9036
  577   5.957e+04      0.3247      0.5786       0.9034
  578   6.095e+04      0.3246      0.5786       0.9032
  579   6.237e+04      0.3244      0.5786        0.903
  580   6.383e+04      0.3242      0.5786       0.9029
  581   6.531e+04      0.3241      0.5786       0.9027
  582   6.683e+04      0.3239      0.5786       0.9026
  583   6.839e+04      0.3238      0.5786       0.9024
  584   6.998e+04      0.3236      0.5786       0.9023
  585   7.161e+04      0.3235      0.5786       0.9021
  586   7.328e+04      0.3234      0.5786        0.902
  587   7.499e+04      0.3232      0.5786       0.9019
  588   7.674e+04      0.3231      0.5786       0.9017
  589   7.852e+04       0.323      0.5786       0.9016
  590   8.035e+04      0.3229      0.5786       0.9015
  591   8.222e+04      0.3228      0.5786       0.9014
  592   8.414e+04      0.3226      0.5786       0.9013
  593    8.61e+04      0.3225      0.5786       0.9011
  594    8.81e+04      0.3224      0.5786        0.901
  595   9.016e+04      0.3223      0.5786        0.901
  596   9.226e+04      0.3223      0.5786       0.9009
  597   9.441e+04      0.3222      0.5787       0.9009
  598   9.661e+04      0.3221      0.5788       0.9008
  599   9.886e+04       0.322      0.5788       0.9008
  600   1.012e+05      0.3219      0.5789       0.9008
  601   1.035e+05      0.3219       0.579       0.9008
  602   1.059e+05      0.3218       0.579       0.9008
  603   1.084e+05      0.3217      0.5791       0.9009
  604   1.109e+05      0.3217      0.5792       0.9009
  605   1.135e+05      0.3216      0.5793       0.9009
  606   1.161e+05      0.3216      0.5794        0.901
  607   1.189e+05      0.3216      0.5795        0.901
  608   1.216e+05      0.3215      0.5796       0.9011
  609   1.245e+05      0.3215      0.5797       0.9012
  610   1.274e+05      0.3215      0.5798       0.9012
  611   1.303e+05      0.3214      0.5799       0.9013
  612   1.334e+05      0.3214        0.58       0.9014
  613   1.365e+05      0.3214      0.5801       0.9015
  614   1.396e+05      0.3214      0.5802       0.9016
  615   1.429e+05      0.3214      0.5804       0.9018
  616   1.462e+05      0.3214      0.5805       0.9019
  617   1.496e+05      0.3214      0.5806        0.902
  618   1.531e+05      0.3214      0.5808       0.9022
  619   1.567e+05      0.3214      0.5809       0.9023
  620   1.603e+05      0.3215       0.581       0.9025
  621   1.641e+05      0.3215      0.5812       0.9027
  622   1.679e+05      0.3215      0.5813       0.9028
  623   1.718e+05      0.3216      0.5815        0.903
  624   1.758e+05      0.3216      0.5816       0.9032
  625   1.799e+05      0.3216      0.5818       0.9034
  626   1.841e+05      0.3217       0.582       0.9036
  627   1.884e+05      0.3217      0.5821       0.9039
  628   1.928e+05      0.3218      0.5823       0.9041
  629   1.972e+05      0.3219      0.5825       0.9044
  630   2.018e+05      0.3219      0.5827       0.9046
  631   2.065e+05       0.322      0.5829       0.9048
  632   2.113e+05      0.3221       0.583       0.9051
  633   2.163e+05      0.3222      0.5832       0.9054
  634   2.213e+05      0.3222      0.5834       0.9057
  635   2.265e+05      0.3223      0.5836        0.906
  636   2.317e+05      0.3224      0.5838       0.9063
  637   2.371e+05      0.3225       0.584       0.9065
  638   2.427e+05      0.3226      0.5842       0.9069
  639   2.483e+05      0.3227      0.5844       0.9072
  640   2.541e+05      0.3229      0.5847       0.9075
  641     2.6e+05       0.323      0.5849       0.9079
  642   2.661e+05      0.3231      0.5851       0.9082
  643   2.723e+05      0.3232      0.5853       0.9085
  644   2.786e+05      0.3234      0.5855       0.9089
  645   2.851e+05      0.3235      0.5858       0.9093
  646   2.917e+05      0.3237       0.586       0.9097
  647   2.985e+05      0.3238      0.5863       0.9101
  648   3.055e+05      0.3239      0.5865       0.9104
  649   3.126e+05      0.3241      0.5867       0.9108
  650   3.199e+05      0.3243       0.587       0.9113
  651   3.273e+05      0.3245      0.5872       0.9117
  652    3.35e+05      0.3246      0.5875       0.9121
  653   3.428e+05      0.3248      0.5877       0.9125
  654   3.508e+05       0.325       0.588        0.913
  655   3.589e+05      0.3252      0.5883       0.9134
  656   3.673e+05      0.3254      0.5885       0.9139
  657   3.758e+05      0.3256      0.5891       0.9147
  658   3.846e+05      0.3258      0.5894       0.9151
  659   3.936e+05       0.326      0.5896       0.9156
  660   4.027e+05      0.3262      0.5899       0.9161
  661   4.121e+05      0.3264      0.5902       0.9166
  662   4.217e+05      0.3266      0.5905       0.9171
  663   4.315e+05      0.3268      0.5907       0.9176
  664   4.416e+05      0.3271       0.591       0.9181
  665   4.519e+05      0.3273      0.5913       0.9186
  666   4.624e+05      0.3275      0.5916       0.9191
  667   4.732e+05      0.3278      0.5919       0.9197
  668   4.842e+05       0.328      0.5922       0.9202
  669   4.955e+05      0.3283      0.5925       0.9208
  670    5.07e+05      0.3285      0.5928       0.9213
  671   5.188e+05      0.3288      0.5931       0.9219
  672   5.309e+05      0.3291      0.5934       0.9225
  673   5.433e+05      0.3294      0.5937        0.923
  674   5.559e+05      0.3296       0.594       0.9236
  675   5.689e+05      0.3299      0.5943       0.9242
  676   5.821e+05      0.3302      0.5946       0.9248
  677   5.957e+05      0.3305      0.5949       0.9254
  678   6.095e+05      0.3308      0.5952        0.926
  679   6.237e+05      0.3311      0.5955       0.9266
  680   6.383e+05      0.3314      0.5959       0.9273
  681   6.531e+05      0.3317      0.5962       0.9279
  682   6.683e+05       0.332      0.5965       0.9285
  683   6.839e+05      0.3324      0.5968       0.9292
  684   6.998e+05      0.3327      0.5971       0.9298
  685   7.161e+05       0.333      0.5975       0.9305
  686   7.328e+05      0.3334      0.5978       0.9312
  687   7.499e+05      0.3337      0.5981       0.9318
  688   7.674e+05       0.334      0.5985       0.9325
  689   7.852e+05      0.3344      0.5988       0.9332
  690   8.035e+05      0.3348      0.5991       0.9339
  691   8.222e+05      0.3351      0.5995       0.9346
  692   8.414e+05      0.3355      0.5998       0.9353
  693    8.61e+05      0.3358      0.6002        0.936
  694    8.81e+05      0.3362      0.6005       0.9367
  695   9.016e+05      0.3366      0.6009       0.9375
  696   9.226e+05       0.337      0.6012       0.9382
  697   9.441e+05      0.3374      0.6016       0.9389
  698   9.661e+05      0.3378      0.6019       0.9397
  699   9.886e+05      0.3382      0.6023       0.9405
  700   1.012e+06      0.3386      0.6026       0.9412
  701   1.035e+06       0.339       0.603        0.942
  702   1.059e+06      0.3394      0.6034       0.9428
  703   1.084e+06      0.3398      0.6037       0.9435
  704   1.109e+06      0.3402      0.6041       0.9443
  705   1.135e+06      0.3407      0.6045       0.9451
  706   1.161e+06      0.3411      0.6048       0.9459
  707   1.189e+06      0.3416      0.6052       0.9467
  708   1.216e+06       0.342      0.6056       0.9476
  709   1.245e+06      0.3424      0.6059       0.9484
  710   1.274e+06      0.3429      0.6063       0.9492
  711   1.303e+06      0.3434      0.6067       0.9501
  712   1.334e+06      0.3438      0.6071       0.9509
  713   1.365e+06      0.3443      0.6075       0.9517
  714   1.396e+06      0.3447      0.6078       0.9526
  715   1.429e+06      0.3452      0.6082       0.9535
  716   1.462e+06      0.3457      0.6086       0.9543
  717   1.496e+06      0.3462       0.609       0.9552
  718   1.531e+06      0.3467      0.6094       0.9561
  719   1.567e+06      0.3472      0.6098        0.957
  720   1.603e+06      0.3477      0.6102       0.9579
  721   1.641e+06      0.3482      0.6106       0.9588
  722   1.679e+06      0.3487       0.611       0.9597
  723   1.718e+06      0.3492      0.6114       0.9606
  724   1.758e+06      0.3498      0.6118       0.9615
  725   1.799e+06      0.3503      0.6122       0.9624
  726   1.841e+06      0.3508      0.6126       0.9634
  727   1.884e+06      0.3514       0.613       0.9643
  728   1.928e+06      0.3519      0.6134       0.9653
  729   1.972e+06      0.3524      0.6138       0.9662
  730   2.018e+06       0.353      0.6142       0.9672
  731   2.065e+06      0.3535      0.6146       0.9682
  732   2.113e+06      0.3541       0.615       0.9691
  733   2.163e+06      0.3547      0.6154       0.9701
  734   2.213e+06      0.3552      0.6159       0.9711
  735   2.265e+06      0.3558      0.6163       0.9721
  736   2.317e+06      0.3564      0.6167       0.9731
  737   2.371e+06       0.357      0.6171       0.9741
  738   2.427e+06      0.3576      0.6175       0.9751
  739   2.483e+06      0.3582       0.618       0.9761
  740   2.541e+06      0.3588      0.6184       0.9772
  741     2.6e+06      0.3594      0.6188       0.9782
  742   2.661e+06        0.36      0.6193       0.9792
  743   2.723e+06      0.3606      0.6197       0.9803
  744   2.786e+06      0.3612      0.6201       0.9813
  745   2.851e+06      0.3618      0.6206       0.9824
  746   2.917e+06      0.3625       0.621       0.9834
  747   2.985e+06      0.3631      0.6214       0.9845
  748   3.055e+06      0.3637      0.6219       0.9856
  749   3.126e+06      0.3644      0.6223       0.9867
  750   3.199e+06       0.365      0.6227       0.9878
  751   3.273e+06      0.3657      0.6232       0.9889
  752    3.35e+06      0.3663      0.6236         0.99
  753   3.428e+06       0.367      0.6241       0.9911
  754   3.508e+06      0.3677      0.6245       0.9922
  755   3.589e+06      0.3683       0.625       0.9933
  756   3.673e+06       0.369      0.6254       0.9944
  757   3.758e+06      0.3697      0.6259       0.9956
  758   3.846e+06      0.3704      0.6263       0.9967
  759   3.936e+06      0.3711      0.6268       0.9978
  760   4.027e+06      0.3718      0.6272        0.999
  761   4.121e+06      0.3725      0.6277            1
  762   4.217e+06      0.3732      0.6282        1.001
  763   4.315e+06      0.3739      0.6286        1.002
  764   4.416e+06      0.3746      0.6291        1.004
  765   4.519e+06      0.3753      0.6295        1.005
  766   4.624e+06       0.376        0.63        1.006
  767   4.732e+06      0.3768      0.6305        1.007
  768   4.842e+06      0.3775      0.6309        1.008
  769   4.955e+06      0.3783      0.6314         1.01
  770    5.07e+06       0.379      0.6319        1.011
  771   5.188e+06      0.3798      0.6323        1.012
  772   5.309e+06      0.3805      0.6328        1.013
  773   5.433e+06      0.3813      0.6333        1.015
  774   5.559e+06       0.382      0.6338        1.016
  775   5.689e+06      0.3828      0.6342        1.017
  776   5.821e+06      0.3836      0.6347        1.018
  777   5.957e+06      0.3844      0.6352         1.02
  778   6.095e+06      0.3851      0.6357        1.021
  779   6.237e+06      0.3859      0.6361        1.022
  780   6.383e+06      0.3867      0.6366        1.023
  781   6.531e+06      0.3875      0.6371        1.025
  782   6.683e+06      0.3883      0.6376        1.026
  783   6.839e+06      0.3891      0.6381        1.027
  784   6.998e+06        0.39      0.6386        1.029
  785   7.161e+06      0.3908       0.639         1.03
  786   7.328e+06      0.3916      0.6395        1.031
  787   7.499e+06      0.3924        0.64        1.032
  788   7.674e+06      0.3933      0.6405        1.034
  789   7.852e+06      0.3941       0.641        1.035
  790   8.035e+06      0.3949      0.6415        1.036
  791   8.222e+06      0.3958       0.642        1.038
  792   8.414e+06      0.3966      0.6425        1.039
  793    8.61e+06      0.3975       0.643         1.04
  794    8.81e+06      0.3984      0.6435        1.042
  795   9.016e+06      0.3992       0.644        1.043
  796   9.226e+06      0.4001      0.6445        1.045
  797   9.441e+06       0.401       0.645        1.046
  798   9.661e+06      0.4019      0.6455        1.047
  799   9.886e+06      0.4027       0.646        1.049
-------------------------------------------------------------
